 #     E (MeV)       theta_cm  channel  sig (mb)     sig/sig_R
       48.41800      180.00000    R     144.99         1.0000    
       48.41800      180.00000    1     54.774        0.37777    
       48.41800      180.00000    2    0.57582E-01    0.39714E-03
       48.41800      180.00000    3     73.483        0.50681    
       48.41800      180.00000    4    0.62978E-01    0.43435E-03
       48.41800      180.00000    5     14.760        0.10180    
       48.41800      180.00000    6    0.12710E-01    0.87661E-04
       48.41800      180.00000    7     1.1021        0.76011E-02
       48.41800      180.00000    8    0.10715E-02    0.73898E-05
       48.41800      180.00000    9    0.40823E-01    0.28155E-03
       48.41800      180.00000   10    0.43945E-04    0.30308E-06
       48.41800      180.00000   11    0.85931E-03    0.59266E-05
       48.41800      180.00000   12    0.83927E-06    0.57884E-08
